Sample	2mm tape 
date	07/01/2025
	
Temperature (K)	77.00
Angle (deg.)	0.000000
field / T	0.000000
	
		
Approx. trace time (s)	60.0	
		
Current / A	V1  -sample/ uV	time/s
-0.019863	-4.630979	0.000000
-0.020628	-4.498018	0.046000
-0.019553	-4.267747	0.092000
-0.019392	-4.033780	0.137000
-0.019833	-3.885347	0.183000
-0.020210	-3.833195	0.229000
-0.019666	-3.820599	0.274000
-0.019989	-3.746146	0.320000
-0.013873	-3.305225	0.366000
0.054813	-3.378100	0.783000
0.101273	-3.378479	0.829000
0.157787	-3.292229	0.875000
0.213730	-3.156480	0.921000
0.270906	-3.000737	0.967000
0.329165	-2.851753	1.013000
0.387330	-2.750511	1.058000
0.444723	-2.735566	1.104000
0.500900	-2.814681	1.149000
0.558168	-2.962277	1.195000
0.614153	-3.124516	1.241000
0.670949	-3.307199	1.287000
0.728547	-3.524851	1.332000
0.787917	-3.764512	1.378000
0.844116	-4.009825	1.424000
1.038913	-4.454986	1.470000
1.095707	-4.472616	1.626000
1.152048	-4.465611	1.671000
1.626588	-4.436221	1.718000
1.684161	-4.222170	2.096000
1.741455	-4.151510	2.142000
1.798230	-4.112389	2.188000
1.854564	-4.172562	2.233000
1.912209	-4.292557	2.279000
1.969536	-4.437347	2.325000
2.028009	-4.568190	2.371000
2.085723	-4.692934	2.416000
2.143351	-4.817076	2.462000
2.199966	-4.899732	2.508000
2.401128	-5.118938	2.554000
2.456643	-5.179300	2.714000
2.513375	-5.231523	2.760000
2.735781	-5.268333	2.806000
2.792672	-5.325012	2.983000
2.851007	-5.337186	3.029000
2.908710	-5.338605	3.075000
2.966731	-5.322398	3.121000
3.024249	-5.291191	3.167000
3.079819	-5.239067	3.212000
3.136108	-5.158621	3.258000
3.193170	-5.049417	3.304000
3.250425	-4.919144	3.350000
3.308789	-4.825451	3.395000
3.366365	-4.771786	3.441000
3.423756	-4.717673	3.487000
3.480300	-4.630918	3.533000
3.536221	-4.547077	3.578000
3.593434	-4.482946	3.624000
3.789137	-4.242763	3.670000
3.847420	-4.221919	3.826000
3.904629	-4.243570	3.872000
4.110130	-4.277625	3.917000
4.168609	-3.998177	4.083000
4.227170	-3.886284	4.129000
4.284895	-3.810476	4.175000
4.341399	-3.809860	4.221000
4.397734	-3.902502	4.267000
4.454464	-4.074485	4.312000
4.512054	-4.242965	4.358000
4.569860	-4.256195	4.404000
4.628039	-4.175403	4.450000
4.685786	-4.046746	4.496000
4.743345	-3.922285	4.542000
4.799120	-3.807835	4.588000
4.855961	-3.683995	4.633000
4.912932	-3.577581	4.679000
4.970652	-3.528599	4.725000
5.165908	-3.615414	4.770000
5.222969	-3.691718	4.926000
5.279135	-3.793480	4.972000
5.487941	-3.874748	5.017000
5.545592	-3.835594	5.183000
5.603331	-3.794091	5.230000
5.659444	-3.775434	5.275000
5.715992	-3.784076	5.321000
5.773319	-3.771860	5.367000
5.831228	-3.740368	5.413000
5.889337	-3.692359	5.459000
5.947175	-3.630681	5.504000
6.004066	-3.572351	5.550000
6.060200	-3.598017	5.595000
6.116466	-3.581341	5.641000
6.173895	-3.534999	5.687000
6.230820	-3.525225	5.733000
6.289172	-3.546510	5.778000
6.346420	-3.547373	5.824000
6.864150	-3.751481	5.870000
6.919913	-3.610427	6.284000
6.977118	-3.506548	6.329000
7.033961	-3.432794	6.375000
7.091953	-3.400172	6.421000
7.149703	-3.450805	6.467000
7.207742	-3.559719	6.513000
7.264748	-3.649691	6.559000
7.321465	-3.746308	6.604000
7.376344	-3.848336	6.650000
7.434040	-3.931422	6.696000
7.491800	-3.977519	6.741000
7.549270	-3.986428	6.787000
7.607199	-3.951033	6.833000
7.664866	-3.889727	6.878000
7.720611	-3.820001	6.924000
7.915167	-3.611124	6.970000
7.971891	-3.577469	7.126000
8.029958	-3.570676	7.172000
8.503922	-3.551851	7.217000
8.559432	-2.728631	7.596000
8.616177	-2.604559	7.642000
8.673401	-2.504427	7.688000
8.730922	-2.442568	7.733000
8.789101	-2.417499	7.779000
8.846972	-2.410443	7.825000
8.904356	-2.407687	7.871000
8.960742	-2.405860	7.916000
9.016768	-2.398764	7.962000
9.074556	-2.387938	8.008000
9.275514	-2.475160	8.054000
9.333278	-2.551403	8.215000
9.390705	-2.628609	8.261000
9.610817	-2.669247	8.307000
9.669118	-2.435482	8.484000
9.726791	-2.248115	8.529000
9.784801	-2.009839	8.575000
9.840590	-1.801283	8.621000
9.896991	-1.600246	8.667000
9.953726	-1.395290	8.713000
10.011269	-1.229731	8.758000
10.068669	-1.194665	8.804000
10.127107	-1.262775	8.850000
10.184190	-1.359902	8.896000
10.240413	-1.447608	8.941000
10.297405	-1.543268	8.987000
10.354416	-1.580370	9.033000
10.412226	-1.557138	9.079000
10.469862	-1.463335	9.124000
10.665328	-1.126189	9.170000
10.722613	-1.131358	9.326000
10.778135	-1.132797	9.372000
10.986704	-1.129249	9.417000
11.044396	-1.434067	9.584000
11.101515	-1.516952	9.630000
11.156961	-1.604364	9.675000
11.214591	-1.693409	9.721000
11.271722	-1.750903	9.767000
11.329343	-1.772423	9.813000
11.387141	-1.774420	9.859000
11.445752	-1.750460	9.905000
11.502642	-1.677171	9.950000
11.558485	-1.585418	9.996000
11.614246	-1.506519	10.042000
11.672157	-1.419450	10.088000
11.729383	-1.330081	10.134000
11.787719	-1.250556	10.179000
11.845488	-1.166678	10.225000
12.040616	-0.989047	10.271000
12.096368	-1.000595	10.427000
12.153463	-1.069944	10.473000
12.361661	-1.144819	10.519000
12.417102	-0.719943	10.684000
12.474973	-0.658221	10.729000
12.531998	-0.592344	10.775000
12.589629	-0.476809	10.821000
12.648003	-0.368789	10.867000
12.705536	-0.287405	10.913000
12.762624	-0.208528	10.959000
12.818629	-0.071877	11.004000
12.874928	0.060664	11.050000
12.932353	0.144672	11.096000
12.989720	0.199284	11.142000
13.047523	0.275399	11.187000
13.105633	0.389363	11.233000
13.163223	0.489317	11.279000
13.219637	0.490114	11.325000
13.735067	-0.566821	11.370000
13.792794	-0.891265	11.784000
13.849604	-1.015580	11.830000
13.908367	-1.077763	11.876000
13.966572	-1.124686	11.921000
14.023698	-1.177419	11.967000
14.080110	-1.216069	12.013000
14.136641	-1.262863	12.059000
14.193640	-1.285246	12.105000
14.251621	-1.330151	12.151000
14.308421	-1.430761	12.196000
14.367029	-1.552197	12.242000
14.423993	-1.587648	12.288000
14.480285	-1.563442	12.333000
14.535962	-1.502180	12.379000
14.593247	-1.418355	12.425000
14.788688	-0.668710	12.471000
14.846665	-0.483976	12.626000
14.904362	-0.345243	12.672000
15.373736	-0.288359	12.718000
15.432061	-0.005480	13.096000
15.489239	0.155721	13.142000
15.547730	0.361511	13.188000
15.605916	0.555024	13.234000
15.663477	0.701389	13.280000
15.719375	0.830676	13.325000
15.775559	0.899715	13.371000
15.832999	0.883022	13.417000
15.890719	0.839952	13.463000
15.948878	0.815299	13.509000
16.148986	0.657351	13.554000
16.206798	0.527642	13.715000
16.264741	0.407241	13.761000
16.486167	0.321557	13.807000
16.543368	-0.350609	13.984000
16.599941	-0.417488	14.030000
16.655904	-0.458761	14.075000
16.713201	-0.498540	14.121000
16.770704	-0.546037	14.167000
16.828657	-0.602766	14.213000
16.887153	-0.667629	14.259000
16.944631	-0.719660	14.305000
17.002053	-0.732020	14.351000
17.057829	-0.697472	14.396000
17.114224	-0.638097	14.442000
17.171877	-0.574078	14.488000
17.229167	-0.529310	14.534000
17.287572	-0.509706	14.580000
17.345360	-0.512360	14.625000
17.539596	-0.653871	14.671000
17.595554	-0.747585	14.827000
17.652903	-0.834084	14.873000
17.860848	-0.880818	14.919000
17.916567	-0.845600	15.084000
17.973428	-0.815628	15.130000
18.031515	-0.749495	15.175000
18.089064	-0.659912	15.221000
18.147032	-0.612448	15.267000
18.205167	-0.645325	15.313000
18.262801	-0.686687	15.359000
18.318464	-0.737297	15.405000
18.374674	-0.820274	15.451000
18.431843	-0.923285	15.496000
18.489211	-1.092035	15.542000
18.547311	-1.284022	15.588000
18.605629	-1.365854	15.634000
18.663153	-1.304457	15.679000
18.719868	-1.182669	15.725000
18.914189	-0.795922	15.771000
18.971617	-0.745517	15.927000
19.029012	-0.717777	15.973000
19.234207	-0.699588	16.019000
19.291750	-0.570783	16.184000
19.349017	-0.515632	16.230000
19.407338	-0.488511	16.276000
19.464609	-0.514337	16.321000
19.521935	-0.581559	16.367000
19.578441	-0.679823	16.413000
19.635068	-0.787550	16.459000
19.692431	-0.819211	16.505000
19.750151	-0.723391	16.551000
19.807832	-0.573691	16.596000
19.865977	-0.381364	16.642000
19.922673	-0.072991	16.688000
19.979258	0.300944	16.733000
20.035067	0.635940	16.779000
20.092510	0.910043	16.825000
20.609985	2.102000	16.870000
20.668495	2.280417	17.284000
20.726453	2.294397	17.330000
20.784006	2.250364	17.376000
20.840458	2.131398	17.421000
20.896163	1.950365	17.467000
20.953146	1.718989	17.513000
21.010825	1.523512	17.559000
21.069275	1.442856	17.605000
21.126659	1.434513	17.651000
21.184272	1.451321	17.696000
21.240891	1.463596	17.742000
21.296890	1.458882	17.788000
21.353507	1.399831	17.834000
21.411070	1.253036	17.880000
21.468479	1.145685	17.925000
21.666007	1.103863	17.971000
21.722747	1.064740	18.127000
21.779236	0.939704	18.173000
22.249961	0.800148	18.219000
22.308319	0.753558	18.596000
22.366271	0.850156	18.642000
22.423621	0.863860	18.688000
22.480357	0.846043	18.734000
22.536053	0.824331	18.780000
22.592814	0.839971	18.825000
22.650137	0.809145	18.871000
22.708366	0.730931	18.916000
22.765865	0.640815	18.962000
22.823497	0.524430	19.008000
23.024959	0.110682	19.054000
23.082197	0.047797	19.215000
23.138261	-0.023599	19.261000
23.359986	-0.120005	19.307000
23.415661	-0.289141	19.484000
23.473592	-0.345636	19.530000
23.531349	-0.394985	19.576000
23.589009	-0.409828	19.622000
23.647071	-0.357156	19.667000
23.704626	-0.243908	19.713000
23.761578	-0.110995	19.759000
23.817878	-0.000472	19.805000
23.874759	0.111226	19.850000
23.932496	0.270958	19.896000
23.990103	0.466264	19.942000
24.047464	0.681215	19.988000
24.105293	0.862567	20.034000
24.162356	1.000155	20.080000
24.218486	1.141103	20.126000
24.413181	1.391540	20.171000
24.470943	1.416177	20.328000
24.528429	1.534835	20.373000
24.733402	1.714272	20.419000
24.791145	2.236212	20.584000
24.848850	2.216681	20.630000
24.907129	2.153686	20.675000
24.964945	2.178317	20.721000
25.022102	2.249835	20.767000
25.078049	2.279984	20.813000
25.135084	2.301523	20.859000
25.192379	2.343371	20.904000
25.249821	2.381156	20.950000
25.307838	2.378163	20.996000
25.365789	2.317034	21.042000
25.422823	2.227981	21.088000
25.478816	2.136581	21.134000
25.535309	2.012438	21.179000
25.592482	1.849638	21.225000
25.787768	1.678176	21.271000
25.845855	1.698764	21.427000
25.903197	1.679390	21.472000
26.109329	1.692530	21.518000
26.167227	1.521574	21.684000
26.224920	1.438586	21.730000
26.282281	1.368921	21.775000
26.338620	1.311485	21.821000
26.394936	1.249894	21.867000
26.452310	1.199211	21.913000
26.509725	1.163230	21.959000
26.568183	1.138830	22.005000
26.626012	1.126298	22.050000
26.683642	1.117480	22.096000
26.739952	1.117268	22.142000
26.796389	1.132077	22.188000
26.852803	1.171749	22.234000
26.910077	1.215809	22.279000
26.968279	1.250036	22.325000
27.485124	1.318126	22.371000
27.542714	1.337289	22.784000
27.599141	1.342370	22.830000
27.655445	1.338967	22.876000
27.713108	1.338797	22.922000
27.770513	1.344082	22.967000
27.828218	1.360795	23.013000
27.886687	1.388712	23.059000
27.944142	1.423963	23.105000
28.000813	1.463586	23.151000
28.056741	1.500375	23.197000
28.113710	1.487908	23.243000
28.171257	1.514225	23.288000
28.229697	1.698925	23.334000
28.287942	1.921282	23.380000
28.345660	2.118693	23.426000
28.539671	2.195068	23.471000
28.595614	2.108742	23.628000
28.653196	2.027535	23.674000
29.126401	2.026969	23.719000
29.184011	1.745928	24.096000
29.240456	1.694167	24.142000
29.296403	1.726045	24.188000
29.353205	1.823046	24.234000
29.411271	1.960616	24.280000
29.469214	2.033748	24.326000
29.527325	2.003256	24.372000
29.585086	1.858912	24.418000
29.641740	1.709353	24.463000
29.696915	1.722664	24.509000
29.899186	2.029583	24.554000
29.955707	2.068895	24.716000
30.012778	2.118592	24.762000
30.233619	2.222789	24.807000
30.291032	2.220244	24.984000
30.349110	2.285664	25.030000
30.407033	2.415918	25.076000
30.464892	2.485090	25.122000
30.521071	2.480658	25.167000
30.577193	2.475364	25.213000
30.633582	2.521128	25.259000
30.691615	2.573626	25.304000
30.749145	2.572451	25.350000
30.807380	2.436742	25.396000
30.864723	2.223011	25.442000
30.922403	1.985950	25.488000
30.978490	1.820254	25.534000
31.035259	1.647209	25.579000
31.092313	1.433751	25.625000
31.287411	0.962025	25.671000
31.344935	0.821620	25.826000
31.402713	0.710707	25.873000
31.609129	0.629464	25.918000
31.666659	0.456900	26.084000
31.724425	0.515414	26.130000
31.781965	0.551179	26.176000
31.838369	0.576290	26.222000
31.894760	0.582221	26.268000
31.952407	0.580348	26.314000
32.009779	0.612474	26.359000
32.068390	0.647578	26.405000
32.125599	0.616204	26.451000
32.182955	0.568891	26.497000
32.238967	0.568149	26.542000
32.294968	0.608224	26.588000
32.352271	0.676808	26.634000
32.410104	0.752109	26.680000
32.468491	0.840671	26.726000
32.663666	1.130942	26.771000
32.720197	1.209846	26.927000
32.776448	1.297787	26.973000
32.985257	1.390356	27.019000
33.043117	1.506114	27.184000
33.099429	1.504807	27.230000
33.155822	1.519934	27.276000
33.213529	1.522144	27.322000
33.271216	1.505171	27.368000
33.328700	1.474699	27.414000
33.386775	1.449943	27.459000
33.443487	1.446435	27.505000
33.499972	1.471889	27.551000
33.555927	1.511243	27.596000
33.612930	1.554332	27.642000
33.670237	1.603124	27.688000
33.728608	1.655611	27.734000
33.786538	1.713047	27.780000
33.844052	1.773644	27.825000
34.359274	2.551392	27.871000
34.415613	2.726968	28.284000
34.472847	2.805952	28.330000
34.530369	2.890804	28.376000
34.588164	2.979361	28.422000
34.646436	3.045712	28.468000
34.704308	3.068372	28.513000
34.761157	3.051992	28.559000
34.817500	3.012787	28.605000
34.874385	2.967405	28.651000
34.931569	2.927433	28.697000
34.989402	2.898023	28.742000
35.047335	2.883779	28.788000
35.105568	2.890835	28.834000
35.162326	2.920488	28.880000
35.218773	2.963271	28.926000
35.412853	3.092444	28.972000
35.470217	3.115869	29.128000
35.528389	3.142199	29.174000
35.999823	3.166424	29.220000
36.056296	3.279545	29.597000
36.113542	3.303913	29.642000
36.171137	3.319101	29.688000
36.229278	3.324567	29.734000
36.287829	3.329250	29.780000
36.344599	3.335087	29.825000
36.401644	3.339558	29.872000
36.457753	3.348421	29.918000
36.514876	3.334904	29.963000
36.572705	3.284093	30.009000
36.773539	3.106252	30.055000
36.830750	3.090579	30.216000
36.888856	3.092141	30.262000
37.109202	3.110169	30.308000
37.167708	3.218765	30.484000
37.225057	3.236823	30.530000
37.282022	3.248958	30.576000
37.337885	3.251067	30.622000
37.394624	3.242002	30.667000
37.451850	3.230802	30.714000
37.509222	3.193250	30.759000
37.567728	3.364209	30.805000
37.624916	3.716820	30.850000
37.681962	4.186692	30.896000
37.737586	4.740548	30.942000
37.794363	5.245870	30.988000
37.851927	5.593671	31.034000
37.909346	5.830646	31.079000
37.967775	5.925678	31.125000
38.163492	5.795643	31.171000
38.219884	5.642739	31.327000
38.276008	5.487520	31.373000
38.485063	5.363435	31.419000
38.542682	4.898693	31.584000
38.598298	4.759069	31.630000
38.654837	4.598387	31.676000
38.711553	4.459297	31.722000
38.769486	4.365314	31.767000
38.827723	4.283469	31.813000
38.885387	4.233805	31.859000
38.942417	4.174209	31.905000
38.998568	4.130091	31.950000
39.055122	4.045053	31.996000
39.112690	3.926454	32.042000
39.169636	3.799530	32.088000
39.227754	3.705676	32.134000
39.285806	3.665745	32.180000
39.343402	3.696504	32.225000
39.536591	3.989309	32.272000
39.594032	4.017915	32.427000
39.651247	4.039582	32.473000
39.858919	4.046759	32.519000
39.915585	4.104798	32.684000
39.972849	4.147091	32.730000
40.030579	4.198044	32.776000
40.088582	4.232690	32.822000
40.146215	4.261470	32.868000
40.203795	4.258072	32.913000
40.260299	4.290057	32.960000
40.316484	4.292123	33.006000
40.373572	4.335412	33.051000
40.431291	4.545204	33.097000
40.488809	4.920155	33.143000
40.546784	5.418584	33.188000
40.603903	5.975588	33.234000
40.661083	6.384509	33.280000
40.717184	6.589602	33.326000
41.232863	5.986207	33.372000
41.290985	5.563072	33.784000
41.348419	5.314032	33.830000
41.405929	5.069697	33.876000
41.464024	4.867663	33.922000
41.520259	4.726366	33.968000
41.576533	4.619394	34.013000
41.633298	4.524685	34.059000
41.691408	4.433117	34.105000
41.748850	4.339136	34.151000
41.806322	4.241328	34.197000
41.864278	4.144163	34.243000
41.921247	4.064223	34.288000
41.976130	4.012019	34.334000
42.034086	3.987011	34.380000
42.091440	3.988603	34.426000
42.287640	4.089601	34.471000
42.345447	4.119688	34.627000
42.402435	4.147833	34.673000
42.873523	4.176885	34.719000
42.930895	4.461498	35.097000
42.989294	4.454533	35.143000
43.046543	4.443748	35.189000
43.103981	4.427286	35.234000
43.161449	4.417780	35.280000
43.217550	4.426384	35.326000
43.274204	4.430133	35.372000
43.331407	4.424302	35.417000
43.388910	4.410654	35.463000
43.447189	4.399419	35.509000
43.648672	4.522975	35.554000
43.706974	4.587592	35.716000
43.763598	4.653761	35.762000
43.984493	4.697729	35.808000
44.041793	4.927760	35.984000
44.098454	5.041009	36.030000
44.154732	5.194899	36.076000
44.212630	5.365663	36.122000
44.270087	5.502393	36.168000
44.327644	5.584563	36.214000
44.386042	5.662805	36.260000
44.443541	5.748653	36.306000
44.499946	5.818351	36.351000
44.555858	5.822617	36.397000
44.613173	5.776697	36.443000
44.670215	5.711437	36.489000
44.728421	5.619964	36.534000
44.786404	5.515023	36.580000
44.843815	5.466423	36.626000
45.036923	5.495125	36.672000
45.094050	5.458251	36.828000
45.151760	5.440349	36.874000
45.357584	5.448166	36.920000
45.414285	5.638093	37.085000
45.471868	5.660340	37.130000
45.529144	5.661913	37.176000
45.587473	5.652982	37.222000
45.645195	5.648445	37.268000
45.702376	5.668368	37.314000
45.758538	5.703144	37.359000
45.814604	5.736217	37.405000
45.872776	5.763503	37.451000
45.930225	5.787713	37.497000
45.988281	5.811568	37.542000
46.046668	5.839742	37.588000
46.103248	5.874343	37.634000
46.159972	5.912308	37.680000
46.215730	5.965695	37.726000
46.410740	6.159352	37.771000
46.468562	6.229876	37.927000
46.526430	6.294311	37.973000
46.731678	6.351185	38.019000
46.789258	6.501311	38.185000
46.847645	6.530870	38.230000
46.906112	6.579421	38.276000
46.963757	6.640825	38.322000
47.020135	6.705293	38.368000
47.077080	6.779980	38.414000
47.133335	6.868889	38.460000
47.190250	6.959463	38.506000
47.247930	7.015616	38.551000
47.306289	7.015926	38.597000
47.363862	6.975666	38.643000
47.420784	6.934071	38.689000
47.476705	6.905062	38.734000
47.533412	6.884490	38.780000
47.591088	6.848068	38.826000
48.107977	6.753780	38.871000
48.166341	6.665663	39.285000
48.223341	6.619475	39.330000
48.280175	6.576242	39.376000
48.336249	6.540940	39.422000
48.393522	6.510654	39.468000
48.450667	6.486054	39.514000
48.508324	6.476237	39.559000
48.566322	6.485546	39.605000
48.624075	6.512293	39.651000
48.680245	6.555964	39.697000
48.736772	6.612449	39.742000
48.793741	6.680941	39.788000
48.850868	6.760907	39.834000
48.908774	6.854273	39.879000
48.967157	6.962860	39.925000
49.162332	7.271565	39.971000
49.218560	7.308110	40.127000
49.274653	7.333655	40.173000
49.748445	7.351203	40.219000
49.806309	7.278641	40.597000
49.863805	7.292905	40.643000
49.920781	7.306544	40.689000
49.976494	7.320625	40.734000
50.034016	7.333714	40.780000
50.091120	7.346556	40.826000
50.148596	7.361822	40.871000
50.206967	7.381585	40.917000
50.264293	7.404370	40.963000
50.320901	7.427423	41.009000
50.523495	7.441879	41.055000
50.579872	7.438648	41.216000
50.636165	7.439237	41.262000
50.858217	7.447100	41.308000
50.914663	7.536030	41.484000
50.972151	7.555078	41.530000
51.029074	7.568106	41.576000
51.087483	7.584610	41.622000
51.144402	7.606244	41.668000
51.202113	7.626034	41.713000
51.257722	7.640015	41.759000
51.314214	7.649494	41.805000
51.371383	7.656246	41.850000
51.429301	7.666524	41.896000
51.486666	7.677493	41.942000
51.545025	7.692353	41.988000
51.602340	7.709290	42.034000
51.658452	7.726003	42.079000
51.714219	7.738111	42.125000
51.910339	7.740317	42.171000
51.967992	7.734810	42.327000
52.026352	7.730822	42.373000
52.231773	7.727919	42.419000
52.289591	7.616413	42.585000
52.348373	7.566136	42.631000
52.406345	7.551529	42.677000
52.463940	7.555860	42.723000
52.520452	7.558575	42.768000
52.576383	7.565772	42.815000
52.633479	7.664792	42.860000
52.690882	7.826922	42.906000
52.748689	8.038860	42.952000
52.806879	8.251647	42.998000
52.864371	8.420438	43.043000
52.921570	8.520103	43.089000
52.978009	8.549024	43.135000
53.033872	8.512571	43.181000
53.091663	8.426622	43.227000
53.287003	8.047768	43.273000
53.345102	7.961019	43.429000
53.402320	7.880390	43.474000
53.607718	7.808040	43.520000
53.665932	7.665256	43.685000
53.722832	7.658547	43.731000
53.779778	7.662258	43.776000
53.835375	7.678766	43.822000
53.892855	7.707663	43.868000
53.949824	7.738760	43.914000
54.007831	7.767933	43.959000
54.066033	7.796877	44.005000
54.123420	7.827152	44.051000
54.179129	7.860074	44.096000
54.235795	7.892355	44.142000
54.292380	7.931002	44.188000
54.350305	7.980548	44.234000
54.408584	8.034882	44.280000
54.466687	8.084225	44.326000
54.983564	8.490834	44.371000
55.040230	8.506974	44.785000
55.096653	8.515772	44.831000
55.152858	8.527259	44.877000
55.210503	8.521198	44.922000
55.268632	8.499005	44.968000
55.326423	8.467344	45.014000
55.384195	8.432077	45.060000
55.441886	8.395943	45.106000
55.497956	8.356427	45.151000
55.554887	8.314380	45.197000
55.611429	8.274484	45.243000
55.669017	8.245705	45.289000
55.726712	8.230105	45.334000
55.784703	8.229920	45.380000
55.841810	8.251401	45.426000
56.035103	8.384470	45.472000
56.091845	8.439943	45.627000
56.149175	8.495508	45.673000
56.623632	8.551140	45.719000
56.680179	8.807311	46.097000
56.736495	8.834001	46.143000
56.793671	8.861201	46.189000
56.851147	8.886792	46.235000
56.908512	8.912367	46.281000
56.967029	8.940126	46.327000
57.024355	8.968991	46.372000
57.082173	9.002317	46.418000
57.137955	9.041897	46.464000
57.194210	9.090740	46.510000
57.395662	9.277323	46.556000
57.452524	9.315269	46.716000
57.510188	9.346261	46.762000
57.730592	9.367943	46.808000
57.788936	9.349319	46.985000
57.847011	9.323094	47.031000
57.904968	9.283910	47.077000
57.962536	9.222954	47.123000
58.019082	9.146611	47.168000
58.075137	9.074298	47.214000
58.131972	9.015748	47.260000
58.189836	8.972206	47.306000
58.248222	8.935928	47.351000
58.305983	8.903881	47.397000
58.363609	8.870742	47.443000
58.419391	8.836100	47.489000
58.475806	8.803630	47.535000
58.532887	8.773907	47.580000
58.590551	8.756224	47.626000
58.786418	8.808436	47.672000
58.844409	8.814852	47.827000
58.900932	8.805882	47.873000
59.107517	8.789175	47.919000
59.165381	8.692911	48.085000
59.222554	8.663412	48.131000
59.279096	8.631782	48.176000
59.334905	8.604511	48.222000
59.392316	8.581481	48.268000
59.449788	8.558649	48.314000
59.508048	8.541421	48.360000
59.565947	8.522415	48.406000
59.623396	8.508627	48.451000
59.679958	8.504825	48.497000
59.735624	8.512461	48.543000
59.792927	8.519770	48.588000
59.850219	8.568523	48.634000
59.908026	8.964304	48.680000
59.966274	9.485067	48.726000
60.160669	11.191632	48.772000
60.217373	11.549197	48.928000
60.274165	11.817517	48.973000
60.483271	11.992682	49.019000
60.539548	11.756315	49.185000
60.595587	11.538723	49.230000
60.652199	11.483445	49.276000
60.710278	11.617567	49.322000
60.767943	11.852398	49.368000
60.826145	12.123429	49.414000
60.883106	12.402266	49.460000
60.939806	12.629306	49.505000
60.995926	12.815376	49.551000
61.053191	13.039221	49.597000
61.110367	13.209191	49.643000
61.168181	13.319672	49.688000
61.225627	13.365657	49.734000
61.282942	13.345747	49.780000
61.339438	13.154904	49.825000
61.855851	15.051226	49.871000
61.913400	15.763259	50.285000
61.970745	16.063843	50.331000
62.029197	16.253546	50.377000
62.087376	16.213126	50.423000
62.144856	15.983213	50.468000
62.201783	15.653489	50.514000
62.258675	15.314565	50.560000
62.314730	15.030781	50.606000
62.372287	14.767475	50.652000
62.429939	14.650960	50.698000
62.488134	14.610770	50.744000
62.545867	14.577392	50.790000
62.603428	14.603008	50.835000
62.659398	14.667431	50.881000
62.715580	14.814920	50.927000
62.911243	14.945243	50.973000
62.968749	14.867372	51.129000
63.026760	14.713482	51.175000
63.496522	14.576543	51.220000
63.553929	12.338422	51.597000
63.610852	12.113055	51.643000
63.668655	11.912447	51.689000
63.726953	11.733165	51.735000
63.784663	11.575601	51.780000
63.842143	11.444146	51.826000
63.898494	11.336532	51.872000
63.955340	11.252881	51.918000
64.012270	11.190677	51.964000
64.069385	11.142914	52.010000
64.270296	11.002389	52.055000
64.328567	10.984792	52.217000
64.386332	10.962029	52.263000
64.606593	10.931719	52.309000
64.664181	10.601691	52.485000
64.721607	10.476126	52.531000
64.778126	10.385689	52.577000
64.834731	10.284620	52.622000
64.892072	10.150879	52.668000
64.949975	10.075769	52.714000
65.007724	10.025131	52.760000
65.065941	9.903132	52.806000
65.123590	9.739517	52.852000
65.179641	9.647384	52.897000
65.235968	9.644395	52.943000
65.293302	9.654520	52.989000
65.350306	9.628904	53.035000
65.408738	9.587270	53.081000
65.466311	9.542344	53.126000
65.660441	9.622222	53.172000
65.716515	9.728091	53.328000
65.773657	9.856750	53.374000
65.982700	9.987952	53.420000
66.038966	10.358993	53.585000
66.095678	10.463110	53.631000
66.152712	10.567627	53.677000
66.210484	10.663492	53.723000
66.268517	10.735940	53.769000
66.326865	10.787061	53.815000
66.384061	10.817713	53.860000
66.441526	10.838554	53.906000
66.497269	10.851961	53.952000
66.553919	10.862283	53.998000
66.611660	10.874595	54.044000
66.669524	10.888838	54.089000
66.727089	10.902391	54.135000
66.785214	10.912134	54.181000
66.842249	10.915641	54.227000
67.034289	10.897361	54.272000
67.091546	10.896206	54.428000
67.149210	10.898192	54.474000
67.355480	10.908740	54.519000
67.412945	11.013023	54.685000
67.470386	11.036887	54.731000
67.528389	11.051317	54.777000
67.586153	11.050564	54.823000
67.644102	11.037355	54.869000
67.700813	11.019076	54.914000
67.756956	11.004916	54.960000
67.813115	10.998112	55.006000
67.870771	10.994503	55.052000
67.928366	10.981709	55.097000
67.986715	10.958107	55.143000
68.043972	10.949249	55.189000
68.101252	10.969206	55.235000
68.157472	11.012780	55.280000
68.214222	11.064047	55.326000
68.730581	11.573926	55.372000
68.788637	11.663348	55.785000
68.846701	11.713363	55.831000
68.904350	11.780544	55.877000
68.961423	11.874113	55.923000
69.017443	11.985249	55.969000
69.074100	12.092614	56.014000
69.131457	12.182468	56.060000
69.188776	12.239914	56.106000
69.246778	12.269097	56.152000
69.304727	12.279642	56.198000
69.362038	12.282785	56.243000
69.418965	12.285794	56.289000
69.475630	12.291957	56.335000
69.532465	12.302440	56.381000
69.590114	12.313767	56.427000
69.785550	12.378220	56.472000
69.843138	12.402877	56.628000
69.899534	12.425161	56.674000
70.370783	12.443415	56.719000
70.428640	13.127259	57.097000
70.486519	13.207336	57.143000
70.544176	13.295375	57.189000
70.601671	13.394349	57.235000
70.657430	13.499991	57.281000
70.714188	13.600612	57.327000
70.771414	13.686525	57.372000
70.828902	13.760057	57.418000
70.887204	13.820446	57.463000
70.944768	13.881381	57.510000
71.145975	14.065265	57.555000
71.203486	14.101172	57.717000
71.259951	14.128675	57.763000
71.482057	14.159594	57.808000
71.537931	14.354027	57.985000
71.593844	14.370144	58.031000
71.651393	14.328640	58.077000
71.709311	14.295802	58.123000
71.766745	14.323798	58.168000
71.825554	14.350436	58.214000
71.882988	14.336767	58.260000
71.939684	14.303571	58.306000
71.995258	14.240667	58.352000
72.052661	14.158031	58.398000
72.110011	14.096771	58.444000
72.167583	14.078464	58.489000
72.225570	14.079722	58.535000
72.283526	14.089232	58.581000
72.340668	14.141146	58.627000
72.533200	14.441286	58.672000
72.590380	14.525900	58.828000
72.648506	14.604538	58.874000
72.854852	14.653612	58.920000
72.912617	14.691630	59.085000
72.969505	14.675302	59.131000
73.027446	14.712841	59.177000
73.085756	14.809923	59.223000
73.143182	14.951204	59.269000
73.200331	15.099991	59.314000
73.256282	15.234953	59.360000
73.313355	15.358074	59.406000
73.370781	15.477402	59.451000
73.427869	15.604042	59.497000
73.486494	15.741227	59.543000
73.543936	15.875745	59.589000
73.600839	16.000348	59.635000
73.656798	16.118064	59.681000
73.713755	16.239361	59.727000
73.908300	16.602632	59.772000
73.966433	16.745716	59.928000
74.024428	16.907867	59.974000
74.230414	17.074994	60.020000
74.288040	17.662845	60.185000
74.346342	17.814570	60.231000
74.403591	17.975514	60.277000
74.460487	18.175845	60.323000
74.516308	18.377857	60.368000
74.573119	18.547255	60.414000
74.630353	18.693866	60.460000
74.688479	18.857561	60.506000
74.746489	19.047520	60.551000
74.804092	19.264168	60.597000
74.860911	19.478498	60.643000
74.917369	19.636409	60.689000
74.973642	19.744504	60.735000
75.030777	19.852464	60.780000
75.087803	19.979316	60.826000
75.605876	21.217263	60.872000
75.663317	21.397530	61.285000
75.720628	21.532043	61.331000
75.776195	21.662072	61.377000
75.833175	21.794791	61.423000
75.890340	21.919656	61.469000
75.948081	22.014175	61.514000
76.006560	22.131037	61.560000
76.064440	22.318040	61.606000
76.121343	22.552706	61.652000
76.178039	22.757331	61.698000
76.234290	22.987332	61.744000
76.292000	23.244288	61.789000
76.348896	23.479810	61.835000
76.407114	23.718782	61.881000
76.465270	23.976229	61.927000
76.661129	24.923436	61.973000
76.716911	25.212406	62.129000
76.773200	25.500563	62.175000
77.245149	25.781456	62.221000
77.301899	28.365149	62.597000
77.358879	28.809230	62.643000
77.415276	29.254463	62.688000
77.472026	29.709257	62.734000
77.529659	30.169845	62.780000
77.587639	30.579831	62.826000
77.645449	30.942515	62.872000
77.703182	31.328950	62.918000
77.760124	31.726377	62.963000
77.815453	32.088502	63.009000
78.020878	33.265550	63.054000
78.076591	33.620178	63.217000
78.132964	33.950239	63.263000
78.354063	34.301091	63.309000
78.411920	35.380495	63.486000
78.469469	35.718424	63.531000
78.527325	35.982528	63.577000
78.585220	36.190575	63.623000
78.642508	36.314015	63.669000
78.699465	36.397111	63.715000
78.755447	36.623620	63.761000
78.812819	36.975146	63.806000
78.870499	37.351223	63.852000
78.928102	37.710164	63.898000
78.986127	37.983936	63.944000
79.043907	38.213987	63.990000
79.101963	38.437988	64.036000
79.157338	38.751278	64.082000
79.213097	39.186755	64.128000
79.408764	40.985930	64.173000
79.466981	41.336899	64.329000
79.524776	41.621205	64.375000
79.729694	41.913649	64.421000
79.787758	43.018656	64.586000
79.845630	43.380983	64.631000
79.903186	43.790913	64.677000
79.959614	44.221163	64.723000
80.015734	44.667096	64.769000
80.072591	45.111567	64.814000
80.129741	45.571436	64.860000
